namespace SunSpecGraphing
{
    internal class Global
    {
        static public int SAMPLE_SIZE = 2048;
        static public double SPECTROMETER_RANGE = 707.33; // This is from 177.62nm -> 884.95nm
        static public List<double> WAVELENGTHS = new List<double>
        {
            177.62,
            178.00,
            178.39,
            178.77,
            179.16,
            179.54,
            179.93,
            180.31,
            180.70,
            181.08,
            181.47,
            181.85,
            182.24,
            182.62,
            183.01,
            183.39,
            183.77,
            184.16,
            184.54,
            184.93,
            185.31,
            185.70,
            186.08,
            186.46,
            186.85,
            187.23,
            187.62,
            188.00,
            188.39,
            188.77,
            189.15,
            189.54,
            189.92,
            190.31,
            190.69,
            191.07,
            191.46,
            191.84,
            192.22,
            192.61,
            192.99,
            193.38,
            193.76,
            194.14,
            194.53,
            194.91,
            195.29,
            195.68,
            196.06,
            196.44,
            196.83,
            197.21,
            197.59,
            197.98,
            198.36,
            198.74,
            199.13,
            199.51,
            199.89,
            200.28,
            200.66,
            201.04,
            201.43,
            201.81,
            202.19,
            202.58,
            202.96,
            203.34,
            203.72,
            204.11,
            204.49,
            204.87,
            205.26,
            205.64,
            206.02,
            206.40,
            206.79,
            207.17,
            207.55,
            207.93,
            208.32,
            208.70,
            209.08,
            209.46,
            209.85,
            210.23,
            210.61,
            210.99,
            211.38,
            211.76,
            212.14,
            212.52,
            212.90,
            213.29,
            213.67,
            214.05,
            214.43,
            214.81,
            215.20,
            215.58,
            215.96,
            216.34,
            216.72,
            217.11,
            217.49,
            217.87,
            218.25,
            218.63,
            219.01,
            219.40,
            219.78,
            220.16,
            220.54,
            220.92,
            221.30,
            221.68,
            222.07,
            222.45,
            222.83,
            223.21,
            223.59,
            223.97,
            224.35,
            224.73,
            225.12,
            225.50,
            225.88,
            226.26,
            226.64,
            227.02,
            227.40,
            227.78,
            228.16,
            228.54,
            228.93,
            229.31,
            229.69,
            230.07,
            230.45,
            230.83,
            231.21,
            231.59,
            231.97,
            232.35,
            232.73,
            233.11,
            233.49,
            233.87,
            234.25,
            234.63,
            235.01,
            235.39,
            235.77,
            236.15,
            236.53,
            236.91,
            237.29,
            237.67,
            238.05,
            238.43,
            238.81,
            239.19,
            239.57,
            239.95,
            240.33,
            240.71,
            241.09,
            241.47,
            241.85,
            242.23,
            242.61,
            242.99,
            243.37,
            243.75,
            244.13,
            244.51,
            244.89,
            245.27,
            245.65,
            246.03,
            246.41,
            246.79,
            247.17,
            247.55,
            247.92,
            248.30,
            248.68,
            249.06,
            249.44,
            249.82,
            250.20,
            250.58,
            250.96,
            251.34,
            251.71,
            252.09,
            252.47,
            252.85,
            253.23,
            253.61,
            253.99,
            254.37,
            254.74,
            255.12,
            255.50,
            255.88,
            256.26,
            256.64,
            257.02,
            257.39,
            257.77,
            258.15,
            258.53,
            258.91,
            259.29,
            259.66,
            260.04,
            260.42,
            260.80,
            261.18,
            261.55,
            261.93,
            262.31,
            262.69,
            263.07,
            263.44,
            263.82,
            264.20,
            264.58,
            264.96,
            265.33,
            265.71,
            266.09,
            266.47,
            266.84,
            267.22,
            267.60,
            267.98,
            268.35,
            268.73,
            269.11,
            269.49,
            269.86,
            270.24,
            270.62,
            270.99,
            271.37,
            271.75,
            272.13,
            272.50,
            272.88,
            273.26,
            273.63,
            274.01,
            274.39,
            274.76,
            275.14,
            275.52,
            275.89,
            276.27,
            276.65,
            277.03,
            277.40,
            277.78,
            278.15,
            278.53,
            278.91,
            279.28,
            279.66,
            280.04,
            280.41,
            280.79,
            281.17,
            281.54,
            281.92,
            282.29,
            282.67,
            283.05,
            283.42,
            283.80,
            284.18,
            284.55,
            284.93,
            285.30,
            285.68,
            286.06,
            286.43,
            286.81,
            287.18,
            287.56,
            287.93,
            288.31,
            288.69,
            289.06,
            289.44,
            289.81,
            290.19,
            290.56,
            290.94,
            291.31,
            291.69,
            292.06,
            292.44,
            292.82,
            293.19,
            293.57,
            293.94,
            294.32,
            294.69,
            295.07,
            295.44,
            295.82,
            296.19,
            296.57,
            296.94,
            297.32,
            297.69,
            298.07,
            298.44,
            298.81,
            299.19,
            299.56,
            299.94,
            300.31,
            300.69,
            301.06,
            301.44,
            301.81,
            302.19,
            302.56,
            302.93,
            303.31,
            303.68,
            304.06,
            304.43,
            304.81,
            305.18,
            305.55,
            305.93,
            306.30,
            306.68,
            307.05,
            307.42,
            307.80,
            308.17,
            308.55,
            308.92,
            309.29,
            309.67,
            310.04,
            310.41,
            310.79,
            311.16,
            311.53,
            311.91,
            312.28,
            312.66,
            313.03,
            313.40,
            313.78,
            314.15,
            314.52,
            314.90,
            315.27,
            315.64,
            316.01,
            316.39,
            316.76,
            317.13,
            317.51,
            317.88,
            318.25,
            318.63,
            319.00,
            319.37,
            319.74,
            320.12,
            320.49,
            320.86,
            321.24,
            321.61,
            321.98,
            322.35,
            322.73,
            323.10,
            323.47,
            323.84,
            324.22,
            324.59,
            324.96,
            325.33,
            325.70,
            326.08,
            326.45,
            326.82,
            327.19,
            327.57,
            327.94,
            328.31,
            328.68,
            329.05,
            329.42,
            329.80,
            330.17,
            330.54,
            330.91,
            331.28,
            331.66,
            332.03,
            332.40,
            332.77,
            333.14,
            333.51,
            333.88,
            334.26,
            334.63,
            335.00,
            335.37,
            335.74,
            336.11,
            336.48,
            336.86,
            337.23,
            337.60,
            337.97,
            338.34,
            338.71,
            339.08,
            339.45,
            339.82,
            340.19,
            340.57,
            340.94,
            341.31,
            341.68,
            342.05,
            342.42,
            342.79,
            343.16,
            343.53,
            343.90,
            344.27,
            344.64,
            345.01,
            345.38,
            345.75,
            346.12,
            346.49,
            346.86,
            347.23,
            347.60,
            347.97,
            348.34,
            348.71,
            349.08,
            349.45,
            349.82,
            350.19,
            350.56,
            350.93,
            351.30,
            351.67,
            352.04,
            352.41,
            352.78,
            353.15,
            353.52,
            353.89,
            354.26,
            354.63,
            355.00,
            355.37,
            355.74,
            356.11,
            356.48,
            356.85,
            357.22,
            357.59,
            357.95,
            358.32,
            358.69,
            359.06,
            359.43,
            359.80,
            360.17,
            360.54,
            360.91,
            361.27,
            361.64,
            362.01,
            362.38,
            362.75,
            363.12,
            363.49,
            363.86,
            364.22,
            364.59,
            364.96,
            365.33,
            365.70,
            366.07,
            366.43,
            366.80,
            367.17,
            367.54,
            367.91,
            368.28,
            368.64,
            369.01,
            369.38,
            369.75,
            370.12,
            370.48,
            370.85,
            371.22,
            371.59,
            371.96,
            372.32,
            372.69,
            373.06,
            373.43,
            373.79,
            374.16,
            374.53,
            374.90,
            375.26,
            375.63,
            376.00,
            376.37,
            376.73,
            377.10,
            377.47,
            377.83,
            378.20,
            378.57,
            378.94,
            379.30,
            379.67,
            380.04,
            380.40,
            380.77,
            381.14,
            381.50,
            381.87,
            382.24,
            382.61,
            382.97,
            383.34,
            383.70,
            384.07,
            384.44,
            384.80,
            385.17,
            385.54,
            385.90,
            386.27,
            386.64,
            387.00,
            387.37,
            387.74,
            388.10,
            388.47,
            388.83,
            389.20,
            389.57,
            389.93,
            390.30,
            390.66,
            391.03,
            391.40,
            391.76,
            392.13,
            392.49,
            392.86,
            393.22,
            393.59,
            393.95,
            394.32,
            394.69,
            395.05,
            395.42,
            395.78,
            396.15,
            396.51,
            396.88,
            397.24,
            397.61,
            397.97,
            398.34,
            398.70,
            399.07,
            399.43,
            399.80,
            400.16,
            400.53,
            400.89,
            401.26,
            401.62,
            401.99,
            402.35,
            402.72,
            403.08,
            403.45,
            403.81,
            404.18,
            404.54,
            404.90,
            405.27,
            405.63,
            406.00,
            406.36,
            406.73,
            407.09,
            407.45,
            407.82,
            408.18,
            408.55,
            408.91,
            409.28,
            409.64,
            410.00,
            410.37,
            410.73,
            411.09,
            411.46,
            411.82,
            412.19,
            412.55,
            412.91,
            413.28,
            413.64,
            414.00,
            414.37,
            414.73,
            415.09,
            415.46,
            415.82,
            416.18,
            416.55,
            416.91,
            417.27,
            417.64,
            418.00,
            418.36,
            418.73,
            419.09,
            419.45,
            419.81,
            420.18,
            420.54,
            420.90,
            421.27,
            421.63,
            421.99,
            422.35,
            422.72,
            423.08,
            423.44,
            423.80,
            424.17,
            424.53,
            424.89,
            425.25,
            425.62,
            425.98,
            426.34,
            426.70,
            427.06,
            427.43,
            427.79,
            428.15,
            428.51,
            428.87,
            429.24,
            429.60,
            429.96,
            430.32,
            430.68,
            431.05,
            431.41,
            431.77,
            432.13,
            432.49,
            432.85,
            433.22,
            433.58,
            433.94,
            434.30,
            434.66,
            435.02,
            435.38,
            435.74,
            436.11,
            436.47,
            436.83,
            437.19,
            437.55,
            437.91,
            438.27,
            438.63,
            438.99,
            439.35,
            439.72,
            440.08,
            440.44,
            440.80,
            441.16,
            441.52,
            441.88,
            442.24,
            442.60,
            442.96,
            443.32,
            443.68,
            444.04,
            444.40,
            444.76,
            445.12,
            445.48,
            445.84,
            446.20,
            446.56,
            446.92,
            447.28,
            447.64,
            448.00,
            448.36,
            448.72,
            449.08,
            449.44,
            449.80,
            450.16,
            450.52,
            450.88,
            451.24,
            451.60,
            451.96,
            452.32,
            452.68,
            453.04,
            453.40,
            453.76,
            454.12,
            454.47,
            454.83,
            455.19,
            455.55,
            455.91,
            456.27,
            456.63,
            456.99,
            457.35,
            457.71,
            458.06,
            458.42,
            458.78,
            459.14,
            459.50,
            459.86,
            460.22,
            460.57,
            460.93,
            461.29,
            461.65,
            462.01,
            462.37,
            462.72,
            463.08,
            463.44,
            463.80,
            464.16,
            464.52,
            464.87,
            465.23,
            465.59,
            465.95,
            466.31,
            466.66,
            467.02,
            467.38,
            467.74,
            468.09,
            468.45,
            468.81,
            469.17,
            469.52,
            469.88,
            470.24,
            470.60,
            470.95,
            471.31,
            471.67,
            472.03,
            472.38,
            472.74,
            473.10,
            473.46,
            473.81,
            474.17,
            474.53,
            474.88,
            475.24,
            475.60,
            475.95,
            476.31,
            476.67,
            477.02,
            477.38,
            477.74,
            478.09,
            478.45,
            478.81,
            479.16,
            479.52,
            479.88,
            480.23,
            480.59,
            480.94,
            481.30,
            481.66,
            482.01,
            482.37,
            482.73,
            483.08,
            483.44,
            483.79,
            484.15,
            484.51,
            484.86,
            485.22,
            485.57,
            485.93,
            486.28,
            486.64,
            487.00,
            487.35,
            487.71,
            488.06,
            488.42,
            488.77,
            489.13,
            489.48,
            489.84,
            490.19,
            490.55,
            490.90,
            491.26,
            491.61,
            491.97,
            492.32,
            492.68,
            493.03,
            493.39,
            493.74,
            494.10,
            494.45,
            494.81,
            495.16,
            495.52,
            495.87,
            496.23,
            496.58,
            496.93,
            497.29,
            497.64,
            498.00,
            498.35,
            498.71,
            499.06,
            499.41,
            499.77,
            500.12,
            500.48,
            500.83,
            501.18,
            501.54,
            501.89,
            502.25,
            502.60,
            502.95,
            503.31,
            503.66,
            504.01,
            504.37,
            504.72,
            505.08,
            505.43,
            505.78,
            506.14,
            506.49,
            506.84,
            507.20,
            507.55,
            507.90,
            508.26,
            508.61,
            508.96,
            509.31,
            509.67,
            510.02,
            510.37,
            510.73,
            511.08,
            511.43,
            511.78,
            512.14,
            512.49,
            512.84,
            513.19,
            513.55,
            513.90,
            514.25,
            514.60,
            514.96,
            515.31,
            515.66,
            516.01,
            516.37,
            516.72,
            517.07,
            517.42,
            517.77,
            518.13,
            518.48,
            518.83,
            519.18,
            519.53,
            519.89,
            520.24,
            520.59,
            520.94,
            521.29,
            521.64,
            522.00,
            522.35,
            522.70,
            523.05,
            523.40,
            523.75,
            524.10,
            524.45,
            524.81,
            525.16,
            525.51,
            525.86,
            526.21,
            526.56,
            526.91,
            527.26,
            527.61,
            527.96,
            528.32,
            528.67,
            529.02,
            529.37,
            529.72,
            530.07,
            530.42,
            530.77,
            531.12,
            531.47,
            531.82,
            532.17,
            532.52,
            532.87,
            533.22,
            533.57,
            533.92,
            534.27,
            534.62,
            534.97,
            535.32,
            535.67,
            536.02,
            536.37,
            536.72,
            537.07,
            537.42,
            537.77,
            538.12,
            538.47,
            538.82,
            539.17,
            539.52,
            539.87,
            540.22,
